# wavelength F(lambda)/F(550nm)
# [nm]
80 2.43112
80.25 2.52596
80.5 1.68158
80.75 1.38341
81 1.77137
81.25 1.81287
81.5 1.61608
81.75 2.24126
82 1.96439
82.25 2.05441
82.5 1.97984
82.75 1.46632
83 1.13201
83.25 0.847537
83.5 1.82696
83.75 2.39727
84 2.17542
84.25 2.52746
84.5 2.609
84.75 2.80982
85 2.26583
85.25 2.64821
85.5 3.43646
85.75 3.00954
86 2.68177
86.25 2.77675
86.5 3.36782
86.75 2.91079
87 3.49672
87.25 3.75452
87.5 3.96247
87.75 4.28456
88 4.44962
88.25 4.19401
88.5 4.6468
88.75 4.21235
89 4.15102
89.25 4.07266
89.5 4.61974
89.75 4.48845
90 4.88833
90.25 5.66987
90.5 5.70533
90.75 5.75857
91 6.31708
91.25 6.20628
91.5 6.81425
91.75 7.21709
92 6.77108
92.25 7.1895
92.5 7.46537
92.75 7.24636
93 7.46592
93.25 8.29881
93.5 8.29074
93.75 7.03596
94 8.73146
94.25 8.8154
94.5 8.91043
94.75 8.57481
95 9.38044
95.25 9.24046
95.5 8.88962
95.75 8.77051
96 7.99602
96.25 8.82943
96.5 8.11774
96.75 8.60758
97 8.67658
97.25 9.34802
97.5 9.86395
97.75 10.3088
98 9.85019
98.25 9.89636
98.5 9.7952
98.75 9.94259
99 10.2901
99.25 10.1676
99.5 10.0388
99.75 9.84268
100 9.47738
100.25 9.69046
100.5 10.0564
100.75 10.0213
101 10.4241
101.25 9.7047
101.5 10.0113
101.75 10.0978
102 9.55122
102.25 10.2941
102.5 10.3796
102.75 11.956
103 12.3444
103.25 13.0232
103.5 13.3926
103.75 12.9585
104 12.2418
104.25 11.84
104.5 10.8041
104.75 10.519
105 10.415
105.25 9.60996
105.5 9.59831
105.75 9.76006
106 10.4026
106.25 10.3689
106.5 9.5901
106.75 9.78252
107 9.55556
107.25 9.31553
107.5 9.57802
107.75 9.68708
108 9.85447
108.25 10.2288
108.5 10.2815
108.75 10.0346
109 9.99714
109.25 9.88696
109.5 9.46058
109.75 9.40441
110 8.98944
110.25 9.275
110.5 8.96611
110.75 9.41627
111 9.23608
111.25 9.21831
111.5 9.34075
111.75 9.89606
112 10.0458
112.25 10.0526
112.5 10.0008
112.75 9.95616
113 9.9281
113.25 9.96462
113.5 9.51609
113.75 9.76503
114 9.53814
114.25 9.49442
114.5 9.33558
114.75 8.75771
115 8.67925
115.25 9.01056
115.5 9.23021
115.75 9.7685
116 9.58054
116.25 9.60236
116.5 10.1552
116.75 10.2278
117 10.1542
117.25 10.7181
117.5 10.6466
117.75 11.0167
118 10.9784
118.25 11.4353
118.5 11.4773
118.75 12.0266
119 12.4905
119.25 13.2499
119.5 13.501
119.75 14.4122
120 15.0385
120.25 16.29
120.5 17.6387
120.75 19.3586
121 21.7213
121.25 23.5323
121.5 25.1772
121.75 26.9131
122 26.1045
122.25 24.6211
122.5 21.2349
122.75 21.1538
123 20.3248
123.25 20.7846
123.5 20.7752
123.75 20.8951
124 20.725
124.25 20.1411
124.5 18.6938
124.75 17.5327
125 16.3595
125.25 15.4211
125.5 14.6279
125.75 14.0941
126 13.9208
126.25 13.7251
126.5 13.4351
126.75 13.1427
127 12.7538
127.25 12.4927
127.5 11.8461
127.75 11.5322
128 11.421
128.25 11.1841
128.5 10.9506
128.75 10.9065
129 11.0004
129.25 11.0563
129.5 11.3047
129.75 11.2687
130 11.3461
130.25 11.4629
130.5 11.8519
130.75 11.7605
131 11.6694
131.25 11.5073
131.5 11.3509
131.75 10.9127
132 10.8023
132.25 10.5968
132.5 10.517
132.75 10.5649
133 10.8399
133.25 10.9563
133.5 11.0804
133.75 11.1457
134 11.1141
134.25 10.913
134.5 10.9442
134.75 10.7356
135 10.6437
135.25 10.5808
135.5 10.486
135.75 10.6428
136 10.5859
136.25 10.5151
136.5 10.499
136.75 10.6237
137 10.7488
137.25 10.8738
137.5 10.8074
137.75 10.9062
138 11.1199
138.25 11.2506
138.5 11.5543
138.75 11.725
139 12.0814
139.25 12.2246
139.5 12.4614
139.75 12.6617
140 12.6637
140.25 12.4854
140.5 12.3618
140.75 11.9741
141 11.5489
141.25 11.3026
141.5 10.998
141.75 10.6972
142 10.549
142.25 10.2924
142.5 10.2676
142.75 10.1463
143 10.0436
143.25 9.998
143.5 9.89945
143.75 9.90578
144 9.74967
144.25 9.73108
144.5 9.64799
144.75 9.67445
145 9.59667
145.25 9.6675
145.5 9.64052
145.75 9.65493
146 9.63413
146.25 9.60523
146.5 9.64352
146.75 9.5703
147 9.57844
147.25 9.62013
147.5 9.60392
147.75 9.52968
148 9.60242
148.25 9.71874
148.5 9.76638
148.75 9.80814
149 9.94947
149.25 9.86785
149.5 9.9585
149.75 10.1511
150 10.2061
150.25 10.1806
150.5 10.3166
150.75 10.4117
151 10.4502
151.25 10.6786
151.5 10.7584
151.75 11.0871
152 11.1626
152.25 11.5816
152.5 11.7855
152.75 12.1927
153 12.5504
153.25 12.957
153.5 13.3451
153.75 14.0836
154 14.9
154.25 15.6698
154.5 15.9825
154.75 16.3974
155 16.1812
155.25 15.452
155.5 14.7067
155.75 13.8207
156 12.96
156.25 12.2677
156.5 11.8123
156.75 11.3554
157 11.0672
157.25 10.7644
157.5 10.5602
157.75 10.33
158 10.2283
158.25 10.0604
158.5 10.0152
158.75 9.95259
159 9.9078
159.25 9.83797
159.5 9.73835
159.75 9.74712
160 9.70769
160.25 9.73645
160.5 9.75577
160.75 9.6688
161 9.65738
161.25 9.69156
161.5 9.67064
161.75 9.67207
162 9.68784
162.25 9.73112
162.5 9.73786
162.75 9.71123
163 9.71287
163.25 9.75691
163.5 9.72202
163.75 9.70302
164 9.71667
164.25 9.51799
164.5 9.34327
164.75 9.24277
165 9.26517
165.25 9.20554
165.5 9.23224
165.75 9.16536
166 9.235
166.25 9.34418
166.5 9.1864
166.75 9.19025
167 9.11559
167.25 8.96674
167.5 8.87651
167.75 8.79515
168 8.60652
168.25 8.56526
168.5 8.47956
168.75 8.4359
169 8.44587
169.25 8.42914
169.5 8.37868
169.75 8.37414
170 8.34135
170.25 8.45435
170.5 8.36795
170.75 8.47941
171 8.42788
171.25 8.52879
171.5 8.42298
171.75 8.50276
172 8.45175
172.25 8.48448
172.5 8.4338
172.75 8.47837
173 8.46215
173.25 8.39923
173.5 8.35946
173.75 8.34567
174 8.34466
174.25 8.41612
174.5 8.38984
174.75 8.42903
175 8.40496
175.25 8.42041
175.5 8.23853
175.75 8.19899
176 8.17738
176.25 8.13529
176.5 8.10753
176.75 8.0387
177 8.00143
177.25 7.99999
177.5 8.02949
177.75 8.00897
178 7.91304
178.25 7.95219
178.5 7.95371
178.75 8.03358
179 7.96959
179.25 7.94577
179.5 7.95724
179.75 7.83022
180 7.73664
180.25 7.7922
180.5 7.77393
180.75 7.73167
181 7.68468
181.25 7.74485
181.5 7.79262
181.75 7.75148
182 7.72425
182.25 7.69405
182.5 7.71112
182.75 7.69507
183 7.62404
183.25 7.63008
183.5 7.75093
183.75 7.70384
184 7.81788
184.25 7.88194
184.5 7.94781
184.75 8.06201
185 8.1462
185.25 8.1886
185.5 8.25316
185.75 8.30226
186 8.35326
186.25 8.32913
186.5 8.29878
186.75 8.31193
187 8.26433
187.25 8.26397
187.5 8.33834
187.75 8.32031
188 8.48811
188.25 8.6217
188.5 8.84213
188.75 9.00643
189 9.24732
189.25 9.39945
189.5 9.52836
189.75 9.67389
190 9.75513
190.25 9.82834
190.5 10.0926
190.75 10.1836
191 10.0365
191.25 9.81072
191.5 9.53052
191.75 9.25514
192 8.84883
192.25 8.62166
192.5 8.47997
192.75 8.18873
193 8.02535
193.25 7.92914
193.5 7.73445
193.75 7.58411
194 7.43968
194.25 7.36994
194.5 7.26302
194.75 7.19799
195 7.1663
195.25 7.1428
195.5 7.11297
195.75 7.11667
196 7.03275
196.25 6.90644
196.5 6.82861
196.75 6.79285
197 6.76022
197.25 6.7073
197.5 6.77402
197.75 6.71371
198 6.73398
198.25 6.66168
198.5 6.64998
198.75 6.70677
199 6.69957
199.25 6.74298
199.5 6.71319
199.75 6.67365
200 6.69825
200.25 6.65134
200.5 6.61602
200.75 6.60736
201 6.59828
201.25 6.53814
201.5 6.49819
201.75 6.47427
202 6.46554
202.25 6.4825
202.5 6.49327
202.75 6.43246
203 6.47714
203.25 6.43892
203.5 6.36812
203.75 6.3689
204 6.44227
204.25 6.44948
204.5 6.43495
204.75 6.42352
205 6.4397
205.25 6.3847
205.5 6.46221
205.75 6.49904
206 6.56127
206.25 6.56798
206.5 6.60449
206.75 6.56274
207 6.60213
207.25 6.60886
207.5 6.54057
207.75 6.48602
208 6.50318
208.25 6.45787
208.5 6.41314
208.75 6.35996
209 6.29536
209.25 6.31179
209.5 6.26852
209.75 6.2537
210 6.2435
210.25 6.25536
210.5 6.25301
210.75 6.16849
211 6.13724
211.25 6.11885
211.5 6.06019
211.75 6.03168
212 5.8709
212.25 5.84595
212.5 5.7633
212.75 5.81227
213 5.80404
213.25 5.79626
213.5 5.8116
213.75 5.83472
214 5.80401
214.25 5.7888
214.5 5.71648
214.75 5.69896
215 5.67499
215.25 5.61976
215.5 5.62472
215.75 5.54969
216 5.54627
216.25 5.55261
216.5 5.59484
216.75 5.56394
217 5.61887
217.25 5.63575
217.5 5.55992
217.75 5.61279
218 5.59134
218.25 5.54208
218.5 5.5319
218.75 5.47555
219 5.46652
219.25 5.41386
219.5 5.37997
219.75 5.30976
220 5.30488
220.25 5.28826
220.5 5.28822
220.75 5.25106
221 5.30103
221.25 5.31328
221.5 5.34056
221.75 5.36785
222 5.34995
222.25 5.2977
222.5 5.34605
222.75 5.32967
223 5.26826
223.25 5.21819
223.5 5.18091
223.75 5.16725
224 5.20153
224.25 5.1512
224.5 5.15383
224.75 5.18471
225 5.21769
225.25 5.27979
225.5 5.17663
225.75 5.23553
226 5.23987
226.25 5.20698
226.5 5.25185
226.75 5.24407
227 5.21958
227.25 5.2355
227.5 5.23364
227.75 5.22895
228 5.24894
228.25 5.27932
228.5 5.29398
228.75 5.31757
229 5.36163
229.25 5.35939
229.5 5.29848
229.75 5.34567
230 5.38345
230.25 5.44076
230.5 5.40126
230.75 5.43255
231 5.4322
231.25 5.40418
231.5 5.44386
231.75 5.42816
232 5.44314
232.25 5.46704
232.5 5.47197
232.75 5.47659
233 5.48648
233.25 5.41434
233.5 5.41445
233.75 5.39561
234 5.36284
234.25 5.30295
234.5 5.25935
234.75 5.26623
235 5.24785
235.25 5.17307
235.5 5.15731
235.75 5.19139
236 5.20258
236.25 5.15467
236.5 5.13894
236.75 5.13859
237 5.09589
237.25 5.10197
237.5 5.09967
237.75 5.08935
238 5.06345
238.25 5.05709
238.5 5.07378
238.75 5.01138
239 5.06604
239.25 5.07253
239.5 5.07524
239.75 5.11486
240 5.14548
240.25 5.14163
240.5 5.05466
240.75 5.13298
241 5.18762
241.25 5.22362
241.5 5.26298
241.75 5.2978
242 5.35429
242.25 5.39426
242.5 5.33011
242.75 5.23042
243 5.2061
243.25 5.23122
243.5 5.16192
243.75 5.18701
244 5.1822
244.25 5.11379
244.5 5.07361
244.75 5.09486
245 4.9986
245.25 4.93021
245.5 4.98301
245.75 4.97744
246 4.92349
246.25 5.01099
246.5 4.98227
246.75 5.01862
247 5.05946
247.25 5.04753
247.5 5.05342
247.75 5.05549
248 5.00719
248.25 5.01816
248.5 4.99868
248.75 5.04774
249 4.96394
249.25 4.96019
249.5 5.00708
249.75 4.91278
250 4.95295
250.25 4.92387
250.5 4.90339
250.75 4.9274
251 4.89957
251.25 4.86581
251.5 4.87715
251.75 4.86506
252 4.82429
252.25 4.7495
252.5 4.76946
252.75 4.75565
253 4.78431
253.25 4.77279
253.5 4.76927
253.75 4.8006
254 4.75725
254.25 4.74059
254.5 4.72443
254.75 4.68806
255 4.68325
255.25 4.69482
255.5 4.66632
255.75 4.624
256 4.64673
256.25 4.62526
256.5 4.62198
256.75 4.57577
257 4.58105
257.25 4.55483
257.5 4.50911
257.75 4.54673
258 4.52512
258.25 4.49987
258.5 4.53426
258.75 4.47076
259 4.49553
259.25 4.38665
259.5 4.37461
259.75 4.44292
260 4.43723
260.25 4.45496
260.5 4.45533
260.75 4.40426
261 4.42634
261.25 4.41367
261.5 4.39508
261.75 4.44907
262 4.40967
262.25 4.40738
262.5 4.34766
262.75 4.33949
263 4.35675
263.25 4.30626
263.5 4.28329
263.75 4.24799
264 4.22628
264.25 4.17882
264.5 4.09778
264.75 4.06568
265 4.08351
265.25 4.09095
265.5 4.06521
265.75 4.0417
266 4.03128
266.25 4.03991
266.5 4.10145
266.75 4.1109
267 4.11857
267.25 4.14187
267.5 4.11285
267.75 4.08957
268 4.03729
268.25 4.06149
268.5 4.06323
268.75 4.07418
269 4.06576
269.25 4.07863
269.5 4.09884
269.75 4.09413
270 4.08493
270.25 4.09702
270.5 4.14024
270.75 4.18641
271 4.20702
271.25 4.24062
271.5 4.23386
271.75 4.17017
272 4.17712
272.25 4.22923
272.5 4.2473
272.75 4.30153
273 4.2798
273.25 4.27644
273.5 4.27787
273.75 4.25551
274 4.27429
274.25 4.34638
274.5 4.39732
274.75 4.39612
275 4.46874
275.25 4.45314
275.5 4.4191
275.75 4.45663
276 4.48625
276.25 4.43836
276.5 4.39547
276.75 4.39022
277 4.47535
277.25 4.50446
277.5 4.56092
277.75 4.66205
278 4.82978
278.25 4.97846
278.5 5.13017
278.75 5.33094
279 5.61617
279.25 5.90764
279.5 6.09902
279.75 6.26675
280 6.25101
280.25 6.14449
280.5 6.00051
280.75 5.71564
281 5.42696
281.25 5.19273
281.5 4.96289
281.75 4.75697
282 4.67333
282.25 4.58182
282.5 4.51518
282.75 4.45079
283 4.38843
283.25 4.35346
283.5 4.28841
283.75 4.27194
284 4.21916
284.25 4.17207
284.5 4.14508
284.75 4.14064
285 4.11382
285.25 4.09965
285.5 4.05315
285.75 3.99792
286 4.00996
286.25 3.93208
286.5 3.93305
286.75 3.90529
287 3.87631
287.25 3.89061
287.5 3.86669
287.75 3.8248
288 3.78687
288.25 3.74578
288.5 3.79177
288.75 3.7603
289 3.70215
289.25 3.67372
289.5 3.67346
289.75 3.71432
290 3.66641
290.25 3.60399
290.5 3.54344
290.75 3.59056
291 3.58273
291.25 3.57841
291.5 3.57109
291.75 3.60093
292 3.59638
292.25 3.6396
292.5 3.66655
292.75 3.66975
293 3.68491
293.25 3.67521
293.5 3.68683
293.75 3.67018
294 3.68068
294.25 3.6526
294.5 3.69576
294.75 3.6558
295 3.63661
295.25 3.63672
295.5 3.63219
295.75 3.6507
296 3.66069
296.25 3.65367
296.5 3.60701
296.75 3.61564
297 3.61744
297.25 3.60093
297.5 3.56219
297.75 3.5507
298 3.5777
298.25 3.56035
298.5 3.50324
298.75 3.46512
299 3.46439
299.25 3.43442
299.5 3.41705
299.75 3.37029
300 3.39008
300.25 3.36161
300.5 3.31588
300.75 3.29848
301 3.29196
301.25 3.26559
301.5 3.22117
301.75 3.19224
302 3.17602
302.25 3.16172
302.5 3.15438
302.75 3.1831
303 3.17281
303.25 3.1493
303.5 3.13143
303.75 3.1696
304 3.17586
304.25 3.17776
304.5 3.18359
304.75 3.17749
305 3.17921
305.25 3.19273
305.5 3.17397
305.75 3.15952
306 3.17296
306.25 3.18685
306.5 3.2183
306.75 3.17787
307 3.18433
307.25 3.1786
307.5 3.22124
307.75 3.21362
308 3.20075
308.25 3.20176
308.5 3.18454
308.75 3.18091
309 3.15508
309.25 3.1583
309.5 3.17945
309.75 3.16215
310 3.14431
310.25 3.17899
310.5 3.17943
310.75 3.23364
311 3.23069
311.25 3.24938
311.5 3.22332
311.75 3.28787
312 3.31647
312.25 3.34869
312.5 3.33762
312.75 3.30507
313 3.33622
313.25 3.31942
313.5 3.30082
313.75 3.24138
314 3.30166
314.25 3.24045
314.5 3.17727
314.75 3.21283
315 3.22957
315.25 3.2357
315.5 3.197
315.75 3.19747
316 3.19627
316.25 3.19221
316.5 3.22448
316.75 3.22419
317 3.27469
317.25 3.28271
317.5 3.25995
317.75 3.26414
318 3.28398
318.25 3.30681
318.5 3.28725
318.75 3.30371
319 3.30976
319.25 3.2861
319.5 3.27465
319.75 3.28962
320 3.29254
320.25 3.23567
320.5 3.24364
320.75 3.2632
321 3.26364
321.25 3.24808
321.5 3.23974
321.75 3.17136
322 3.17165
322.25 3.11501
322.5 3.16088
322.75 3.16828
323 3.17586
323.25 3.14336
323.5 3.10372
323.75 3.09003
324 3.09033
324.25 3.12345
324.5 3.08688
324.75 3.08
325 3.08775
325.25 3.09882
325.5 3.12076
325.75 3.10543
326 3.09457
326.25 3.1043
326.5 3.0525
326.75 3.0291
327 3.04249
327.25 3.08903
327.5 3.07779
327.75 3.08921
328 3.07416
328.25 3.06104
328.5 3.05472
328.75 3.0693
329 3.10238
329.25 3.05027
329.5 3.02381
329.75 3.0009
330 2.98111
330.25 3.00477
330.5 2.94928
330.75 2.93465
331 2.93402
331.25 2.92558
331.5 2.90719
331.75 2.90445
332 2.85092
332.25 2.87238
332.5 2.84319
332.75 2.86467
333 2.87029
333.25 2.87616
333.5 2.88132
333.75 2.89897
334 2.90219
334.25 2.9277
334.5 2.97063
334.75 2.93887
335 2.8807
335.25 2.86467
335.5 2.8551
335.75 2.83932
336 2.83322
336.25 2.84221
336.5 2.81602
336.75 2.81593
337 2.79413
337.25 2.79613
337.5 2.84689
337.75 2.8346
338 2.83154
338.25 2.80402
338.5 2.84041
338.75 2.83736
339 2.81457
339.25 2.78266
339.5 2.82352
339.75 2.80251
340 2.80392
340.25 2.83466
340.5 2.84339
340.75 2.85626
341 2.84509
341.25 2.87566
341.5 2.87307
341.75 2.91798
342 2.94026
342.25 2.98532
342.5 3.03841
342.75 2.97587
343 2.91227
343.25 2.87438
343.5 2.82282
343.75 2.84063
344 2.84445
344.25 2.81409
344.5 2.80429
344.75 2.78477
345 2.7223
345.25 2.71458
345.5 2.75256
345.75 2.74841
346 2.7451
346.25 2.75608
346.5 2.77917
346.75 2.81296
347 2.75065
347.25 2.76946
347.5 2.73134
347.75 2.64633
348 2.69853
348.25 2.72905
348.5 2.7365
348.75 2.72665
349 2.71847
349.25 2.73112
349.5 2.6762
349.75 2.72607
350 2.73755
350.25 2.67352
350.5 2.67752
350.75 2.67135
351 2.63455
351.25 2.63556
351.5 2.63621
351.75 2.62323
352 2.5978
352.25 2.58491
352.5 2.56124
352.75 2.56099
353 2.52391
353.25 2.52632
353.5 2.55396
353.75 2.53876
354 2.53832
354.25 2.52876
354.5 2.48057
354.75 2.46761
355 2.49793
355.25 2.51552
355.5 2.52019
355.75 2.51659
356 2.52804
356.25 2.51829
356.5 2.48737
356.75 2.48496
357 2.52135
357.25 2.53861
357.5 2.56364
357.75 2.53414
358 2.52097
358.25 2.52455
358.5 2.57307
358.75 2.50178
359 2.49973
359.25 2.5042
359.5 2.49433
359.75 2.49293
360 2.46252
360.25 2.47419
360.5 2.49286
360.75 2.48258
361 2.50659
361.25 2.45491
361.5 2.45113
361.75 2.48974
362 2.49944
362.25 2.48095
362.5 2.45655
362.75 2.4792
363 2.44955
363.25 2.41869
363.5 2.472
363.75 2.44055
364 2.41106
364.25 2.43102
364.5 2.4357
364.75 2.41525
365 2.42043
365.25 2.4063
365.5 2.42157
365.75 2.43972
366 2.42697
366.25 2.42076
366.5 2.4045
366.75 2.38807
367 2.38905
367.25 2.37766
367.5 2.3788
367.75 2.37341
368 2.36249
368.25 2.37554
368.5 2.3599
368.75 2.31822
369 2.35369
369.25 2.37723
369.5 2.36204
369.75 2.37987
370 2.357
370.25 2.37017
370.5 2.3626
370.75 2.33255
371 2.32768
371.25 2.31715
371.5 2.32329
371.75 2.36193
372 2.3886
372.25 2.46006
372.5 2.59486
372.75 2.71537
373 2.67808
373.25 2.50285
373.5 2.35007
373.75 2.32166
374 2.2972
374.25 2.31019
374.5 2.30724
374.75 2.26248
375 2.28122
375.25 2.30078
375.5 2.33088
375.75 2.3273
376 2.2669
376.25 2.28002
376.5 2.23473
376.75 2.2492
377 2.25991
377.25 2.22686
377.5 2.23929
377.75 2.21517
378 2.20954
378.25 2.19938
378.5 2.18224
378.75 2.20227
379 2.16802
379.25 2.12215
379.5 2.08252
379.75 2.09061
380 2.11535
380.25 2.0805
380.5 2.07537
380.75 2.10302
381 2.13761
381.25 2.13808
381.5 2.12493
381.75 2.12539
382 2.1097
382.25 2.09541
382.5 2.09217
382.75 2.08851
383 2.07115
383.25 2.10968
383.5 2.11731
383.75 2.08256
384 2.07334
384.25 2.11043
384.5 2.09736
384.75 2.10201
385 2.11688
385.25 2.14143
385.5 2.13267
385.75 2.17075
386 2.19297
386.25 2.23512
386.5 2.296
386.75 2.40361
387 2.37414
387.25 2.28301
387.5 2.18864
387.75 2.15949
388 2.09131
388.25 2.09139
388.5 2.159
388.75 2.1456
389 2.16023
389.25 2.12467
389.5 2.06858
389.75 2.05054
390 2.03099
390.25 2.0681
390.5 2.03823
390.75 2.02117
391 2.01913
391.25 1.99753
391.5 2.00443
391.75 2.0041
392 1.97425
392.25 1.958
392.5 1.9383
392.75 1.90638
393 1.88757
393.25 1.89578
393.5 1.87655
393.75 1.89379
394 1.92081
394.25 1.92243
394.5 1.95359
394.75 1.96545
395 1.9585
395.25 1.92968
395.5 1.97448
395.75 1.97042
396 1.99776
396.25 1.99844
396.5 1.9892
396.75 1.99475
397 1.97866
397.25 1.96619
397.5 1.92796
397.75 1.94043
398 1.94206
398.25 1.92079
398.5 1.92965
398.75 1.91595
399 1.85961
399.25 1.89465
399.5 1.8908
399.75 1.85454
400 1.8483
400.25 1.82795
400.5 1.84779
400.75 1.82315
401 1.81154
401.25 1.83811
401.5 1.83147
401.75 1.87192
402 1.85765
402.25 1.82152
402.5 1.83482
402.75 1.81318
403 1.78588
403.25 1.7917
403.5 1.79006
403.75 1.77156
404 1.7846
404.25 1.76116
404.5 1.74752
404.75 1.75449
405 1.80587
405.25 1.77818
405.5 1.75941
405.75 1.80189
406 1.79471
406.25 1.79118
406.5 1.81217
406.75 1.86722
407 1.89004
407.25 1.87809
407.5 1.8662
407.75 1.85445
408 1.85608
408.25 1.87346
408.5 1.91364
408.75 1.91189
409 1.91731
409.25 1.96767
409.5 1.97685
409.75 1.95812
410 2.06694
410.25 2.05308
410.5 2.00559
410.75 1.96114
411 1.9315
411.25 1.93388
411.5 1.93505
411.75 1.8764
412 1.86773
412.25 1.84587
412.5 1.82867
412.75 1.82495
413 1.81057
413.25 1.82146
413.5 1.79098
413.75 1.77274
414 1.75498
414.25 1.72295
414.5 1.71453
414.75 1.66574
415 1.68779
415.25 1.7182
415.5 1.68334
415.75 1.71736
416 1.73173
416.25 1.68864
416.5 1.71821
416.75 1.70356
417 1.69901
417.25 1.71774
417.5 1.7286
417.75 1.70101
418 1.68785
418.25 1.6531
418.5 1.66602
418.75 1.68818
419 1.68546
419.25 1.67041
419.5 1.66026
419.75 1.62694
420 1.60007
420.25 1.5886
420.5 1.6323
420.75 1.65675
421 1.62464
421.25 1.64442
421.5 1.63828
421.75 1.63582
422 1.64259
422.25 1.66116
422.5 1.63992
422.75 1.61486
423 1.63053
423.25 1.6705
423.5 1.69177
423.75 1.68399
424 1.67564
424.25 1.70257
424.5 1.70015
424.75 1.66765
425 1.6758
425.25 1.66622
425.5 1.64405
425.75 1.62786
426 1.61954
426.25 1.66023
426.5 1.6758
426.75 1.65667
427 1.67178
427.25 1.66037
427.5 1.65145
427.75 1.6925
428 1.7048
428.25 1.70531
428.5 1.67116
428.75 1.6699
429 1.70062
429.25 1.76641
429.5 1.7573
429.75 1.78926
430 1.74304
430.25 1.72888
430.5 1.77457
430.75 1.77384
431 1.79024
431.25 1.79782
431.5 1.83742
431.75 1.87674
432 1.92655
432.25 1.89424
432.5 1.92939
432.75 1.95392
433 1.98645
433.25 2.10261
433.5 2.11417
433.75 2.1354
434 2.1709
434.25 2.20347
434.5 2.17667
434.75 2.12596
435 2.05175
435.25 2.04699
435.5 2.02381
435.75 2.04892
436 2.01941
436.25 1.95954
436.5 1.95032
436.75 1.88793
437 1.87189
437.25 1.8589
437.5 1.75616
437.75 1.71756
438 1.73763
438.25 1.72142
438.5 1.67799
438.75 1.68195
439 1.6596
439.25 1.65593
439.5 1.69233
439.75 1.67558
440 1.6535
440.25 1.63611
440.5 1.63617
440.75 1.61806
